nu(Mhz) 185.0K

19.998 24.485
16.167 28.703
13.07 33.505
10.569 37.85
8.5415 42.401
6.9048 48.54
5.5842 53.56
4.5147 59.028
3.6496 66.847
2.9499 74.63
2.3857 82.026
1.9276 92.65
1.5577 108.42
1.2593 127.73
1.0181 151.77
0.82406 187.19
0.66606 223.5
0.53764 283.64
0.43548 341.19
0.35161 424.27
